#Procedure: <__main__.IVProcedure>
#Parameters:
#	Maximum temperature: 15 K
#	Minimum temperature: 11 K
#	Number of power line cycles aka. measurement accurac (0.1/1/10): 1
#	Amperage of heater: 0.75 A
#	Temperature ramp rate: 0.5 K/min
#	Resistance Range: 2000 Ohm
#	Time per measurement: 0.1 s
#Data:
Temperature (K),Resistance (ohm)
11.8308,203.368
11.8499,203.357
11.8689,203.37
11.8976,203.369
11.9167,203.365
11.9358,203.36
11.9549,203.363
11.974,203.362
11.9931,203.367
12.0123,203.374
12.0315,203.37
12.0506,203.373
12.0697,203.368
12.0888,203.371
12.1079,203.38
12.1365,203.376
12.1555,203.379
12.1746,203.371
12.1936,203.385
12.2222,203.383
12.2411,203.384
12.2603,203.384
12.2798,203.386
12.2993,203.395
12.3188,203.391
12.3381,203.401
12.3574,203.394
12.3768,203.391
12.3961,203.389
12.4154,203.393
12.4346,203.39
12.4538,203.382
12.4826,203.388
12.5016,203.386
12.5206,203.39
12.5395,203.386
12.5678,203.38
12.5868,203.381
12.6057,203.384
12.6244,203.382
12.643,203.389
12.6618,203.381
12.6805,203.382
12.6991,203.391
12.7268,203.39
12.7452,203.388
12.7636,203.386
12.782,203.401
12.8003,203.4
12.8185,203.402
12.8458,203.391
12.8639,203.395
12.882,203.391
12.9,203.399
12.9179,203.396
12.9358,203.405
12.9537,203.402
12.9715,203.4
12.9892,203.4
13.0069,203.393
13.0245,203.393
13.0509,203.394
13.069,203.4
13.0869,203.4
13.1048,203.397
13.1226,203.399
13.1404,203.416
13.1669,203.42
13.1845,203.418
13.202,203.414
13.2196,203.41
13.2371,203.412
13.2544,203.415
13.2717,203.411
13.289,203.413
13.3063,203.407
13.332,203.412
13.349,203.41
13.366,203.41
13.383,203.411
13.3999,203.41
13.4168,203.406
13.4335,203.41
13.4502,203.412
13.4752,203.409
13.5001,203.412
13.5166,203.408
13.533,203.411
13.5494,203.415
13.5657,203.451
13.5818,203.441
13.598,203.437
13.614,203.438
13.63,203.437
13.6539,203.482
13.6697,203.466
13.6853,203.462
13.7005,203.457
13.7154,203.462
13.7303,203.475
13.7452,203.466
13.7604,203.474
13.7834,203.485
13.7988,203.476
13.8143,203.475
13.8297,203.48
13.8452,203.483
13.8607,203.469
13.8839,203.492
13.8994,203.486
13.9152,203.486
13.931,203.479
13.9546,203.488
13.9703,203.474
13.986,203.467
14.0016,203.47
14.0172,203.473
14.0328,203.507
14.0483,203.497
14.0638,203.498
14.0792,203.498
14.0946,203.497
14.1099,203.503
14.1252,203.499
14.1404,203.489
14.1632,203.483
14.1784,203.502
14.1936,203.51
14.2086,203.509
14.2311,203.499
14.2462,203.508
14.2612,203.51
14.2761,203.501
14.291,203.494
14.3058,203.493
14.3206,203.492
14.3354,203.486
14.3575,203.49
14.3722,203.486
14.3868,203.492
14.4014,203.496
14.416,203.513
14.4306,203.507
14.4451,203.506
14.4596,203.52
14.4812,203.514
14.4956,203.504
14.5098,203.51
14.5241,203.507
14.5384,203.506
14.5526,203.512
14.5668,203.509
14.588,203.515
14.6021,203.514
14.6161,203.502
14.6302,203.509
14.6442,203.512
14.6581,203.511
14.672,203.507
14.6859,203.509
14.6998,203.516
14.7135,203.513
14.7273,203.517
14.7479,203.503
14.7619,203.525
14.776,203.509
14.79,203.516
14.804,203.509
14.818,203.52
14.8319,203.52
14.8458,203.514
14.8596,203.52
14.8735,203.513
14.8873,203.523
14.901,203.531
