#Procedure: <__main__.IVProcedure>
#Parameters:
#	Maximum temperature: 15 K
#	Minimum temperature: 11 K
#	Number of power line cycles aka. measurement accurac (0.1/1/10): 10
#	Amperage of heater: 0.75 A
#	Temperature ramp rate: 0.5 K/min
#	Resistance Range: 2000 Ohm
#	Time per measurement: 0.1 s
#Data:
Temperature (K),Resistance (ohm)
11.228,205.3236
11.2497,205.3331
11.2712,205.339
11.2925,205.3532
11.3162,205.3581
11.337,205.3319
11.3578,205.3264
11.3785,205.3994
11.399,205.343
11.4219,205.3868
11.442,205.3649
11.4622,205.3471
11.4827,205.3732
11.503,205.3645
11.5257,205.358
11.5455,205.3462
11.5652,205.3738
11.5848,205.3604
11.6067,205.3636
11.6259,205.3065
11.6448,205.3523
11.6636,205.3801
11.6844,205.3665
11.7028,205.356
11.721,205.3465
11.7388,205.3444
11.7586,205.3156
11.776,205.3344
11.7932,205.3306
11.8101,205.3026
11.8289,205.3283
11.8454,205.323
11.8616,205.3605
11.8776,205.3612
11.8953,205.3473
11.9109,205.3649
11.9264,205.3646
11.9415,205.3555
11.9581,205.3509
11.9726,205.3685
11.9868,205.3473
12.0009,205.3533
12.0165,205.288
12.03,205.3066
12.0433,205.2907
12.0563,205.335
12.0692,205.341
12.0834,205.3053
12.0957,205.3274
12.1077,205.3311
12.1195,205.3031
12.1312,205.3219
12.1442,205.2957
12.1554,205.3165
12.1664,205.2929
12.1771,205.3054
12.1876,205.3367
12.1992,205.2747
12.2094,205.2696
12.2194,205.265
12.2291,205.253
12.2397,205.2885
12.2491,205.3014
12.2586,205.3057
12.2679,205.3249
12.2782,205.2742
12.287,205.3077
12.2956,205.3054
12.3052,205.3217
12.3134,205.3319
12.3217,205.2952
12.3297,205.313
12.3385,205.3124
12.3461,205.2945
12.3534,205.3172
12.3608,205.2827
12.3689,205.2986
12.376,205.3136
12.3828,205.3066
12.3894,205.2984
12.3969,205.2833
12.4035,205.2858
12.41,205.322
12.4162,205.304
12.4225,205.3337
12.4294,205.3209
12.4355,205.3007
12.4414,205.2884
12.4473,205.2896
12.453,205.2899
12.4593,205.3124
12.4649,205.2929
12.4705,205.2801
12.4761,205.2767
12.4822,205.3099
12.4876,205.3082
12.4927,205.2993
12.4981,205.2955
12.504,205.3016
12.5092,205.2913
12.5143,205.2873
12.5195,205.2403
12.5252,205.2476
12.5304,205.2366
12.5356,205.2447
12.5407,205.2274
12.5464,205.2144
12.5515,205.2013
12.5565,205.1814
12.5618,205.1994
12.5675,205.1977
12.5727,205.2199
12.5776,205.2185
12.5828,205.2271
12.5886,205.2441
12.5939,205.2298
12.599,205.2389
12.604,205.2291
12.6092,205.2019
12.6151,205.2059
12.6204,205.2086
12.6257,205.2059
12.6311,205.2148
12.6363,205.1919
12.6422,205.2057
12.6475,205.2203
12.6528,205.1629
12.6583,205.1153
12.6645,205.1218
12.6699,205.1751
12.6753,205.1566
12.6808,205.1672
12.687,205.1742
12.6926,205.1734
12.6983,205.1912
12.7038,205.1837
12.7101,205.1331
12.7159,205.1328
12.7216,205.1242
12.7274,205.1211
12.7339,205.0979
12.7399,205.091
12.7458,205.1014
12.7517,205.0949
12.7578,205.1028
12.7645,205.084
12.7705,205.0703
12.7765,205.0893
12.7827,205.0821
12.7889,205.0728
12.7958,205.0764
12.802,205.0732
12.8082,205.0775
12.8144,205.0582
12.8207,205.094
12.8277,205.0732
12.8341,205.0839
12.8404,205.0684
12.8468,205.0571
12.8539,205.0564
12.8604,205.027
12.867,205.0315
12.8735,205.028
12.8807,205.0322
12.8872,205.0347
12.8937,205.0466
12.9003,205.0166
12.9078,205.0017
12.9145,204.9861
12.9211,204.9978
12.9277,205.0067
12.9352,204.9984
12.9419,204.9862
12.9486,204.9908
12.9553,205.0286
12.962,205.0399
12.9698,204.9965
12.9767,204.9955
12.9836,204.9899
12.9905,205.0033
12.9974,205.0051
13.0051,205.0053
13.012,205.0113
13.019,205.0108
13.0259,205.0005
13.0336,205.0216
13.0405,204.9992
13.0475,205.0
13.0546,204.9967
13.0627,204.9989
13.0699,204.975
13.0771,204.9567
13.0843,204.976
13.0925,204.9735
13.0997,205.0021
13.107,204.9915
13.1142,204.9586
13.1222,204.9482
13.1293,204.9503
13.1365,204.9658
13.1438,204.9917
13.1517,204.9759
13.1589,204.9892
13.1659,204.9815
13.173,204.9961
13.1802,204.9638
13.1881,204.9841
13.1953,204.9467
13.2023,204.9483
13.2093,204.9603
13.2173,204.9824
13.2243,204.9678
13.2314,204.9685
13.2384,204.9562
13.2463,204.9613
13.2532,204.9708
13.2603,204.9724
13.2674,204.9383
13.2754,204.9277
13.2824,204.9282
13.2895,204.9344
13.2965,204.9683
13.3044,204.9636
13.3114,204.9535
13.3184,204.9533
13.3254,204.9614
13.3331,204.9524
13.3402,204.9992
13.347,204.9924
13.3541,204.9963
13.3619,204.9814
13.3689,204.9838
13.3758,205.0092
13.3827,205.0009
13.3905,204.9996
13.3975,204.9997
13.4044,205.0042
13.4112,205.0115
13.4181,204.9568
13.426,204.9691
13.4329,204.9506
13.4398,204.9502
13.4464,204.9631
13.4533,204.9691
13.461,204.9653
13.4679,204.9777
13.4748,204.9737
13.4817,204.9861
13.4885,204.9737
13.4963,204.9683
13.5031,204.9733
13.5099,204.9747
13.5167,204.9813
13.5245,204.9807
13.5314,204.9749
13.5383,204.9776
13.5454,204.9764
13.5533,204.9662
13.5602,204.9859
13.5672,204.9847
13.5741,204.9837
13.5818,204.989
13.5887,204.9819
13.5957,204.987
13.6026,204.9951
13.6104,204.9825
13.6174,205.0072
13.6243,205.0085
13.6314,205.0194
13.6384,205.0186
13.6462,204.9994
13.6531,205.0003
13.6599,204.9757
13.6669,204.9927
13.6738,204.9948
13.6815,204.9763
13.6883,205.0019
13.6952,205.0112
13.7019,205.0075
13.7094,205.0079
13.716,205.0069
13.7223,204.982
13.7292,205.0022
13.7352,204.9892
13.7415,204.9876
13.7483,204.9981
13.7562,204.9918
13.7635,204.996
13.7707,205.0028
13.7779,204.9793
13.7862,204.9807
13.7936,205.0085
13.801,205.0301
13.8082,204.999
13.8165,205.0076
13.8239,204.9896
13.8315,204.9753
13.839,204.9812
13.8474,204.9764
13.855,205.0012
13.8624,204.998
13.87,204.9816
13.8776,204.9935
13.886,205.0069
13.8936,205.0059
13.9011,205.0305
13.9088,205.0272
13.9165,205.0427
13.9252,205.028
13.933,205.0013
13.9407,205.0025
13.9484,205.0018
13.957,205.0422
13.9648,205.0317
13.9725,205.0242
13.9802,205.0221
13.9889,205.0326
13.9966,205.0412
14.0043,205.0486
14.0121,205.0376
14.0207,205.0502
14.0285,205.0413
14.036,205.0187
14.0437,205.0187
14.0523,205.0464
14.0599,205.0742
14.0677,205.1013
14.0752,205.091
14.0836,205.0785
14.0911,205.0815
14.0987,205.0963
14.1063,205.0902
14.1147,205.0947
14.1222,205.0865
14.1297,205.099
14.1371,205.0976
14.1446,205.1316
14.1529,205.1029
14.1601,205.1144
14.1674,205.1135
14.1748,205.1216
14.183,205.1082
14.1903,205.0923
14.1977,205.0822
14.205,205.0991
14.2131,205.1395
14.2202,205.1335
14.2274,205.1175
14.2346,205.1199
14.2426,205.1192
14.2497,205.1113
14.2567,205.1107
14.2636,205.1361
14.2716,205.1303
14.2786,205.1317
14.2855,205.1472
14.2923,205.1808
14.3001,205.1801
14.307,205.1822
14.3141,205.1871
14.3209,205.1656
14.3278,205.1728
14.3354,205.1733
14.3421,205.1872
14.3488,205.1757
14.3556,205.172
14.3622,205.16
14.3698,205.186
14.3765,205.2562
14.3831,205.2743
14.3899,205.3058
14.3975,205.2766
14.4041,205.2608
14.4106,205.2774
14.4172,205.2815
14.4246,205.2912
14.4312,205.3331
14.4377,205.365
14.4442,205.4042
14.4514,205.3695
14.4578,205.3511
14.4643,205.3224
14.4708,205.3141
14.478,205.3402
14.4844,205.3139
14.4907,205.3825
14.4971,205.3754
14.5044,205.3836
14.5108,205.3883
14.5173,205.4764
14.5238,205.5342
14.5302,205.5398
14.5374,205.5794
14.5438,205.5591
14.5502,205.5854
14.5566,205.6138
14.563,205.6021
14.5702,205.6035
14.5766,205.6063
14.5831,205.6224
14.5895,205.6027
14.5967,205.5911
14.603,205.6148
14.6094,205.6379
14.6157,205.6409
14.6229,205.6722
14.6292,205.6811
14.6355,205.7021
14.6418,205.7257
14.649,205.7198
14.6554,205.7464
14.6617,205.7062
14.6681,205.7374
14.6752,205.734
14.6815,205.7881
14.6878,205.7741
14.6942,205.8009
14.7013,205.829
14.7077,205.8947
14.7141,205.9257
14.7204,205.9695
14.7268,205.97
14.7339,206.0005
14.7402,205.9536
14.7466,205.9815
14.7529,206.1111
14.7595,206.1081
14.767,206.1069
14.7737,206.0983
14.7802,206.0793
14.7869,206.1262
14.7944,206.1442
14.801,206.2191
14.8076,206.2158
14.8143,206.2389
14.8219,206.2361
14.8285,206.2743
14.835,206.3481
14.8417,206.3517
14.8494,206.3224
14.856,206.3523
14.8629,206.5003
14.8697,206.5166
14.8772,206.4716
14.884,206.4039
14.8907,206.4187
14.8975,206.3411
14.905,206.3657
